# fieldid, time (part of night), ra (deg), dec (deg)
582 1.0000 230.7715 18.9480
803 1.0000 335.1936 54.8937
831 1.0000 340.0178 62.0663
852 1.0000 334.3248 69.2337
869 1.0000 200.2334 83.4047
1794 1.0000 207.9133 51.2895
1807 1.0000 342.4962 51.2708
1837 1.0000 343.0209 58.4467
1861 1.0000 338.8282 65.6178
1879 1.0000 332.5142 72.7662
1836 0.9825 331.0185 58.4439
867 0.9756 324.1022 76.3727
1806 0.9670 332.5960 51.2687
830 0.9616 326.6899 62.0777
1860 0.9515 323.9365 65.6153
770 0.9483 332.1048 47.7130
1808 0.9337 352.4386 51.2685
734 0.9309 346.6028 40.5204
1772 0.9267 349.3134 44.0854
1770 0.9227 330.8745 44.0893
1732 0.9222 338.7412 36.8965
772 0.9207 352.1753 47.7080
802 0.9179 324.3968 54.9021
851 0.9094 317.1971 69.2362
1733 0.9087 347.1247 36.8940
732 0.8972 329.7438 40.5263
1805 0.8903 322.6765 51.2717
1835 0.8895 319.0171 58.4425
691 0.8842 337.2166 33.3291
692 0.8841 345.0011 33.3192
1731 0.8838 330.3561 36.8910
1878 0.8811 312.5354 72.7821
769 0.8706 322.0700 47.7129
829 0.8583 313.3638 62.0734
690 0.8578 329.4360 33.3357
1769 0.8515 321.6787 44.0846
693 0.8459 352.7822 33.3159
1689 0.8429 337.7929 29.7105
1690 0.8429 345.4589 29.7046
1688 0.8425 330.1321 29.7088
1859 0.8347 308.8634 65.6240
801 0.8321 313.3004 54.9066
731 0.8319 321.3129 40.5234
1691 0.8226 353.1204 29.7036
1730 0.8190 321.9762 36.8999
1804 0.8080 312.0535 51.2797
645 0.7988 338.3782 26.1354
646 0.7988 345.9024 26.1270
644 0.7987 330.8537 26.1339
647 0.7982 353.4262 26.1204
689 0.7976 321.6535 33.3397
1834 0.7967 307.0290 58.4570
768 0.7946 312.2527 47.7077
866 0.7894 300.1319 76.3731
1735 0.7848 7.6647 44.0851
1687 0.7832 322.4725 29.7121
1775 0.7818 12.0642 51.2699
1768 0.7803 312.4716 44.0952
850 0.7765 300.0637 69.2365
876 0.7728 300.7216 83.3927
643 0.7679 323.3298 26.1404
730 0.7663 312.8239 40.5286
737 0.7654 12.2415 47.6853
807 0.7607 19.9921 62.0540
1810 0.7557 19.0125 58.4494
828 0.7551 300.0324 62.0772
1729 0.7542 313.5939 36.9116
774 0.7538 17.5386 54.8763
1644 0.7504 353.7958 22.5119
1643 0.7504 346.4045 22.5131
1642 0.7504 339.0139 22.5170
1641 0.7502 331.6262 22.5127
800 0.7461 302.2097 54.8951
1840 0.7417 23.9090 65.6219
834 0.7379 25.7017 69.2164
688 0.7374 313.8709 33.3414
695 0.7345 11.8909 40.3537
1803 0.7288 301.8173 51.2774
649 0.7255 8.3471 33.3183
1686 0.7240 314.8029 29.7222
1858 0.7192 293.9594 65.6101
767 0.7190 302.4829 47.7130
1693 0.7143 12.2655 36.8954
1736 0.7136 16.8666 44.0833
642 0.7097 315.8051 26.1426
1767 0.7088 303.2376 44.0968
1776 0.7040 22.1131 51.2677
1833 0.7039 295.0410 58.4549
1646 0.7028 8.6153 29.7022
729 0.7001 304.2716 40.5230
598 0.6978 346.8646 18.9512
597 0.6977 339.6168 18.9457
595 0.6976 325.1202 18.9539
599 0.6975 354.1150 18.9299
596 0.6975 332.3683 18.9386
1639 0.6935 316.8398 22.5243
1864 0.6933 32.4760 72.7793
1728 0.6893 305.2035 36.9068
738 0.6877 22.2765 47.6986
601 0.6819 8.4742 26.1262
687 0.6771 306.0870 33.3281
594 0.6752 317.8718 18.9509
775 0.6718 28.1247 54.8694
855 0.6708 35.9773 76.3486
696 0.6696 20.3773 40.5048
650 0.6653 16.1298 33.3136
1685 0.6647 307.1484 29.7177
1811 0.6627 31.0191 58.4481
799 0.6603 291.1134 54.9086
808 0.6574 33.3175 62.0465
1597 0.6559 8.7150 22.5129
827 0.6519 286.7047 62.0640
641 0.6515 308.2796 26.1472
1694 0.6495 20.6445 36.8967
1802 0.6481 291.3892 51.2791
1647 0.6464 15.9164 29.7049
849 0.6438 282.9210 69.2296
766 0.6433 292.7062 47.7026
1737 0.6424 26.0661 44.0842
1593 0.6381 340.2254 15.3340
1594 0.6380 347.3402 15.3252
1595 0.6380 354.4548 15.3200
1591 0.6380 325.9988 15.3367
1592 0.6380 333.1116 15.3301
1590 0.6379 318.8843 15.3379
1766 0.6373 293.9920 44.0914
1638 0.6364 309.4622 22.5213
728 0.6334 295.6573 40.5196
551 0.6303 8.6114 18.9389
1777 0.6265 32.1167 51.2676
1841 0.6255 38.8989 65.6251
1727 0.6246 296.8516 36.9036
602 0.6237 16.0001 26.1139
593 0.6189 310.6217 18.9327
686 0.6166 298.2688 33.3321
1832 0.6125 283.2310 58.4498
739 0.6101 32.3100 47.6927
1684 0.6054 299.4881 29.7015
651 0.6051 23.9133 33.3151
835 0.6049 42.8485 69.2085
697 0.6038 28.8678 40.4999
865 0.6037 276.1570 76.3655
1857 0.6031 278.9603 65.6113
1598 0.6014 15.7632 22.5208
1546 0.6013 8.5207 15.3303
1589 0.5982 311.7708 15.3334
640 0.5933 300.7540 26.1418
776 0.5898 38.7101 54.8699
1648 0.5858 23.7557 29.7030
1695 0.5843 29.0623 36.8939
1637 0.5792 302.0700 22.5191
798 0.5744 280.0127 54.8829
552 0.5742 15.8587 18.9306
1738 0.5711 35.2683 44.0836
546 0.5707 333.8274 11.7577
545 0.5706 326.8452 11.7604
549 0.5706 354.7783 11.7449
548 0.5705 347.7936 11.7421
547 0.5705 340.8113 11.7412
544 0.5702 319.8607 11.7473
1812 0.5683 43.2105 58.4493
765 0.5677 282.9330 47.6971
1801 0.5674 280.9577 51.2640
727 0.5668 287.0419 40.5252
500 0.5658 8.7446 11.7438
1765 0.5657 284.7456 44.0903
603 0.5656 23.5237 26.1289
592 0.5631 303.3732 18.9572
1726 0.5599 288.4847 36.8986
685 0.5559 290.4180 33.3315
809 0.5541 46.6524 62.0421
1778 0.5497 42.0463 51.2678
826 0.5487 273.3694 62.0590
1683 0.5462 291.8401 29.7098
652 0.5449 31.6950 33.2990
1547 0.5438 15.9569 15.3311
1588 0.5431 304.6599 15.3296
1599 0.5430 23.3198 22.5195
1865 0.5384 52.4532 72.7811
698 0.5378 37.4128 40.5115
639 0.5352 293.2499 26.1438
740 0.5324 42.3459 47.7023
1649 0.5265 31.4145 29.7028
1636 0.5220 294.6920 22.5070
1696 0.5208 37.2816 36.8955
542 0.5191 305.8954 11.7659
1831 0.5182 271.0343 58.4651
553 0.5182 23.1100 18.9347
501 0.5119 15.7280 11.7469
848 0.5110 265.7409 69.2261
1842 0.5093 53.8942 65.6213
777 0.5078 49.3002 54.8662
604 0.5073 31.0494 26.1219
591 0.5068 296.1222 18.9435
726 0.5000 278.4235 40.5090
1739 0.5000 44.4607 44.0825
1725 0.4951 280.1175 36.8948
684 0.4950 282.5648 33.3103
1764 0.4942 275.5000 44.0870
764 0.4921 273.1608 47.7003
1494 0.4905 8.8790 8.1376
1543 0.4905 348.2335 8.1344
1540 0.4905 327.6582 8.1500
1544 0.4904 355.0920 8.1313
1541 0.4903 334.5163 8.1348
1542 0.4903 341.3751 8.1275
1539 0.4901 320.8012 8.1416
1548 0.4899 22.9148 15.3246
1538 0.4899 313.9481 8.1415
797 0.4885 268.9164 54.8800
1587 0.4881 297.5455 15.3306
1856 0.4873 263.9602 65.6355
1682 0.4870 284.1809 29.7150
1800 0.4868 270.5275 51.2841
1600 0.4858 30.7100 22.5108
653 0.4848 39.4791 33.3263
856 0.4846 59.9711 76.3598
638 0.4774 285.7707 26.1457
1813 0.4770 55.0013 58.4522
1779 0.4730 51.9516 51.2670
1495 0.4728 15.5985 8.1383
836 0.4722 59.9730 69.2083
699 0.4716 45.9614 40.5097
1650 0.4673 39.0705 29.7034
1635 0.4656 287.3762 22.5243
541 0.4650 298.9117 11.7623
554 0.4621 30.3593 18.9329
870 0.4621 60.1252 83.3985
502 0.4578 22.7118 11.7390
1697 0.4549 45.7917 36.8923
741 0.4547 52.3815 47.6823
590 0.4511 288.9164 18.9462
810 0.4509 59.9830 62.0412
605 0.4490 38.5752 26.1107
825 0.4457 260.0365 62.0583
875 0.4453 258.3372 83.3915
1549 0.4350 30.0277 15.3281
683 0.4343 274.7112 33.3263
725 0.4334 269.8076 40.5122
1586 0.4330 290.4322 15.3312
1724 0.4305 271.7535 36.9008
1740 0.4289 53.6536 44.0859
1601 0.4287 38.0996 22.5160
1681 0.4277 276.5217 29.7073
1830 0.4255 259.0378 58.4561
654 0.4246 47.2599 33.3267
778 0.4242 60.0998 54.8670
1763 0.4227 266.2516 44.0862
637 0.4195 278.2892 26.1407
1496 0.4191 22.5349 8.1302
864 0.4182 252.1259 76.3688
763 0.4166 263.3848 47.6965
540 0.4110 291.9267 11.7583
1634 0.4090 280.0617 22.5238
1651 0.4081 46.7263 29.7017
1799 0.4061 260.0938 51.2641
555 0.4060 37.6074 18.9269
700 0.4055 54.5097 40.5136
503 0.4038 29.6949 11.7409
796 0.4028 257.8191 54.8849
1780 0.3963 61.8618 51.2678
589 0.3949 281.6519 18.9486
1843 0.3938 68.8125 65.6235
447 0.3911 5.2253 4.5535
497 0.3911 351.2079 4.5520
496 0.3911 344.1972 4.5516
448 0.3910 12.2366 4.5515
494 0.3910 330.1750 4.5599
606 0.3909 46.0974 26.1161
495 0.3909 337.1850 4.5486
493 0.3906 323.1660 4.5565
449 0.3904 19.2457 4.5378
492 0.3903 316.1560 4.5588
1698 0.3901 54.1724 36.8946
490 0.3900 302.1362 4.5720
491 0.3897 309.1471 4.5522
1814 0.3842 66.9985 58.4565
1866 0.3835 72.4450 72.7794
1550 0.3800 37.1436 15.3281
847 0.3789 248.6334 69.2279
1585 0.3787 283.4219 15.3311
742 0.3770 62.4184 47.6833
682 0.3736 266.8586 33.3250
1855 0.3716 248.9801 65.6244
1602 0.3715 45.4860 22.5191
1680 0.3686 268.8724 29.7070
724 0.3668 261.1900 40.5108
1497 0.3661 29.3901 8.1352
1723 0.3658 263.3867 36.8950
655 0.3642 55.0454 33.3040
636 0.3616 270.8093 26.1407
1741 0.3578 62.8482 44.0849
539 0.3563 284.8725 11.7568
1633 0.3521 272.7131 22.5207
1762 0.3512 257.0070 44.0804
556 0.3499 44.8565 18.9217
504 0.3497 36.6777 11.7354
1652 0.3488 54.3873 29.7059
811 0.3477 73.3162 62.0395
489 0.3460 295.1257 4.5882
824 0.3427 246.7011 62.0606
762 0.3410 253.6094 47.7028
450 0.3404 26.2559 4.5415
837 0.3395 77.1194 69.2004
701 0.3393 63.0559 40.4950
779 0.3391 71.1110 54.8761
588 0.3387 274.3848 18.9504
1829 0.3328 247.0423 58.4535
607 0.3327 53.6249 26.1223
1699 0.3253 62.5477 36.8971
1798 0.3250 249.6050 51.2639
1551 0.3249 44.2601 15.3278
795 0.3171 246.7209 54.8838
1603 0.3145 52.8748 22.5316
1781 0.3143 72.4687 51.2721
1498 0.3129 36.2535 8.1287
681 0.3129 259.0055 33.3229
1679 0.3107 261.3825 29.7091
656 0.3040 62.8313 33.3056
635 0.3037 263.3255 26.1306
538 0.3024 277.8993 11.7669
1722 0.3019 255.1251 36.8982
743 0.3011 72.2407 47.7025
723 0.3002 252.5730 40.5143
857 0.2989 83.9694 76.3455
1632 0.2964 265.5290 22.5052
505 0.2958 43.6626 11.7440
557 0.2939 52.1082 18.9310
488 0.2913 288.1146 4.5700
1815 0.2913 78.9981 58.4563
1653 0.2896 62.0447 29.7119
1742 0.2866 72.0464 44.0861
451 0.2862 33.2657 4.5398
587 0.2823 267.1116 18.9408
1761 0.2798 247.7556 44.0974
1844 0.2773 83.8837 65.6231
608 0.2745 61.1470 26.1233
702 0.2733 71.6045 40.5140
1552 0.2700 51.3745 15.3399
761 0.2655 243.8361 47.7041
1700 0.2605 70.9263 36.8975
1499 0.2599 43.1122 8.1366
1604 0.2573 60.2619 22.5309
780 0.2545 82.0386 54.8644
680 0.2522 251.1519 33.3223
1678 0.2500 253.5414 29.7117
537 0.2483 270.9236 11.7576
1490 0.2467 344.7195 0.9373
846 0.2466 231.4758 69.2305
1491 0.2466 351.5986 0.9352
1441 0.2465 5.3733 0.9342
1442 0.2464 12.3888 0.9343
1443 0.2464 19.1405 0.9348
1444 0.2463 26.0248 0.9360
634 0.2458 255.8431 26.1342
1797 0.2450 239.2314 51.2746
812 0.2446 86.6527 62.0386
657 0.2439 70.6114 33.3078
506 0.2416 50.6466 11.7365
1828 0.2402 235.0363 58.4599
823 0.2398 233.3650 62.0620
1631 0.2391 258.1107 22.5182
558 0.2377 59.3601 18.9264
487 0.2376 281.1880 4.5685
1721 0.2364 246.6508 36.8988
1782 0.2350 82.7181 51.2696
722 0.2337 243.9569 40.5175
863 0.2334 228.0987 76.3679
452 0.2319 40.2757 4.5331
794 0.2314 235.6208 54.8851
1654 0.2303 69.7031 29.7038
1867 0.2290 92.4372 72.7807
744 0.2269 81.8392 47.6982
586 0.2261 259.8460 18.9408
1445 0.2169 32.9058 0.9364
609 0.2162 68.6791 26.1156
1743 0.2151 81.2906 44.0919
1553 0.2149 58.4886 15.3384
1760 0.2084 238.5069 44.0971
1500 0.2070 49.9701 8.1476
838 0.2069 94.2649 69.1916
703 0.2067 80.2168 40.5140
1605 0.2002 67.6509 22.5306
1816 0.1986 90.9983 58.4488
1701 0.1956 79.3094 36.8955
536 0.1942 263.9474 11.7558
679 0.1916 243.2991 33.3428
1677 0.1908 245.8815 29.7078
760 0.1901 234.0601 47.7034
633 0.1879 248.3615 26.1313
507 0.1876 57.6308 11.7404
486 0.1846 274.3487 4.5649
658 0.1836 78.3931 33.3027
1630 0.1825 250.7899 22.5185
559 0.1816 66.6088 18.9276
453 0.1777 47.2883 4.5405
1720 0.1718 238.2842 36.9068
1655 0.1712 77.3627 29.7122
781 0.1700 92.9581 54.8447
585 0.1699 252.5757 18.9478
721 0.1671 235.3384 40.5171
1796 0.1644 228.7998 51.2704
1446 0.1634 39.7942 0.9375
1845 0.1622 98.7804 65.6202
1581 0.1616 255.3718 15.3295
1554 0.1598 65.6022 15.3373
610 0.1580 76.2037 26.1149
874 0.1558 220.4876 83.3959
871 0.1542 100.0058 83.4018
1783 0.1541 93.1989 51.2744
745 0.1540 91.2635 47.6979
1501 0.1539 56.8311 8.1502
1827 0.1476 223.0292 58.4543
793 0.1458 224.5213 54.8867
1744 0.1437 90.5386 44.0929
1606 0.1430 75.0361 22.5319
813 0.1416 99.9788 62.0284
535 0.1402 256.9737 11.7556
704 0.1400 88.8328 40.5138
1759 0.1384 229.4341 44.1067
822 0.1370 220.0288 62.0682
508 0.1335 64.6180 11.7380
485 0.1317 267.5079 4.5674
1676 0.1316 238.2228 29.7032
1702 0.1310 87.6726 36.9051
678 0.1308 235.4440 33.3289
632 0.1302 240.8797 26.1419
1629 0.1259 243.4756 22.5191
560 0.1256 73.8605 18.9322
454 0.1235 54.2976 4.5521
659 0.1232 86.2141 33.3164
845 0.1147 214.3371 69.2312
759 0.1146 224.2831 47.7022
858 0.1137 107.9699 76.3243
584 0.1137 245.3069 18.9477
1656 0.1119 85.0215 29.7153
1447 0.1100 46.6807 0.9406
1719 0.1082 230.0420 36.9116
1580 0.1068 248.3068 15.3067
1817 0.1059 103.0000 58.4576
1555 0.1048 72.7177 15.3407
1502 0.1008 63.6888 8.1476
720 0.1006 226.7237 40.5165
611 0.0997 83.7243 26.0987
534 0.0862 249.9977 11.7531
1607 0.0859 82.4263 22.5322
782 0.0856 103.8873 54.8416
1795 0.0838 218.3378 51.2905
746 0.0812 100.6892 47.7000
509 0.0795 71.6023 11.7373
484 0.0785 260.6664 4.5658
839 0.0747 111.3995 69.1884
1868 0.0746 112.4573 72.7863
705 0.0734 97.4501 40.5104
1675 0.0725 230.5583 29.7214
631 0.0723 233.3996 26.1371
1784 0.0723 103.7814 51.2758
1745 0.0722 99.7841 44.0957
677 0.0702 227.5927 33.3275
1628 0.0697 236.2151 22.5135
561 0.0694 81.1101 18.9259
455 0.0689 61.3120 4.5384
1703 0.0664 96.0377 36.9137
1758 0.0656 220.0157 44.0867
660 0.0625 94.0704 33.3237
792 0.0602 213.4267 54.8911
583 0.0575 238.0382 18.9518
1448 0.0568 53.5586 0.9487
1657 0.0528 92.6744 29.7226
1556 0.0497 79.8319 15.3399
862 0.0492 204.1045 76.3730
1503 0.0477 70.5470 8.1490
1846 0.0456 113.8925 65.6389
1718 0.0426 221.5477 36.9143
612 0.0418 91.2305 26.1223
758 0.0392 214.5070 47.7033
814 0.0387 113.3140 62.0292
821 0.0343 206.6942 62.0658
719 0.0340 218.1051 40.5157
533 0.0323 243.0223 11.7555
1608 0.0287 89.8130 22.5334
483 0.0254 253.8224 4.5670
510 0.0254 78.5867 11.7333
456 0.0146 68.3230 4.5415
630 0.0145 225.9159 26.1378
1627 0.0136 228.9381 22.5269
1674 0.0133 222.9005 29.7130
562 0.0132 88.3537 18.9065
1818 0.0128 115.0638 58.4654
676 0.0095 219.7381 33.3280
747 0.0084 110.1140 47.6986
706 0.0068 106.0663 40.5086
1449 0.0034 60.4420 0.9476
661 0.0018 101.9211 33.3232
1704 0.0018 104.3944 36.9148
783 0.0013 114.8161 54.8741
1746 0.0008 109.0316 44.0942
245 0.0000 181.1499 -24.2235
246 0.0000 8.5436 -24.2413
247 0.0000 15.9369 -24.2437
248 0.0000 23.3328 -24.2422
249 0.0000 30.7272 -24.2373
250 0.0000 38.1212 -24.2289
251 0.0000 45.5139 -24.2421
252 0.0000 52.9110 -24.2162
253 0.0000 60.3030 -24.2142
254 0.0000 67.6977 -24.2134
255 0.0000 75.0908 -24.2155
256 0.0000 82.4853 -24.2130
257 0.0000 89.8853 -24.2073
258 0.0000 97.2725 -24.2115
259 0.0000 104.6628 -24.2028
260 0.0000 112.0586 -24.2137
261 0.0000 119.3971 -24.2078
262 0.0000 126.6822 -24.2091
263 0.0000 133.9354 -23.2612
264 0.0000 141.2510 -24.2112
265 0.0000 148.5349 -24.2144
266 0.0000 155.8197 -24.2118
267 0.0000 163.1043 -24.2129
268 0.0000 170.3859 -24.2160
269 0.0000 177.6725 -24.2150
270 0.0000 184.8972 -23.7590
271 0.0000 192.2474 -24.2164
272 0.0000 199.5121 -24.2188
273 0.0000 206.8113 -24.2154
274 0.0000 214.0947 -24.2119
275 0.0000 221.3802 -24.2090
276 0.0000 228.6620 -24.2147
277 0.0000 235.9466 -24.2093
278 0.0000 243.2323 -24.2196
279 0.0000 250.5274 -24.2334
280 0.0000 257.7994 -24.2205
281 0.0000 265.0869 -24.2276
282 0.0000 272.4179 -24.1830
283 0.0000 279.8534 -24.1950
284 0.0000 287.2103 -24.2064
285 0.0000 294.6052 -24.2163
286 0.0000 301.9995 -24.2040
287 0.0000 309.3939 -24.2123
288 0.0000 316.7839 -24.2207
289 0.0000 324.1798 -24.2175
290 0.0000 331.5741 -24.2236
291 0.0000 338.9667 -24.2319
292 0.0000 346.3621 -24.2266
293 0.0000 353.7557 -24.2307
294 0.0000 181.6145 -17.0213
295 0.0000 8.6964 -17.0404
296 0.0000 15.7793 -17.0360
297 0.0000 22.8617 -17.0364
298 0.0000 29.9451 -17.0496
299 0.0000 37.0270 -17.0464
300 0.0000 44.1089 -17.0496
301 0.0000 51.1924 -17.0518
302 0.0000 58.2746 -17.0527
303 0.0000 65.3630 -17.0362
304 0.0000 72.4448 -17.0345
305 0.0000 79.5288 -17.0345
306 0.0000 86.6116 -17.0378
307 0.0000 93.6927 -17.0245
308 0.0000 100.7784 -17.0157
309 0.0000 107.8568 -17.0226
310 0.0000 114.9132 -17.0217
311 0.0000 121.9444 -17.0175
312 0.0000 128.9749 -17.0219
313 0.0000 136.0049 -17.0222
314 0.0000 143.0316 -17.0148
315 0.0000 150.0606 -17.0151
316 0.0000 157.0928 -17.0225
317 0.0000 164.1230 -17.0208
318 0.0000 171.1518 -17.0210
319 0.0000 178.1800 -17.0246
320 0.0000 185.2107 -17.0235
321 0.0000 192.2395 -17.0239
322 0.0000 199.2709 -17.0210
323 0.0000 206.2983 -17.0175
324 0.0000 213.3279 -17.0147
325 0.0000 220.3578 -17.0139
326 0.0000 227.3878 -17.0129
327 0.0000 234.4180 -17.0134
328 0.0000 241.4478 -17.0119
329 0.0000 248.4790 -17.0167
330 0.0000 255.5093 -17.0380
331 0.0000 262.5293 -17.0269
332 0.0000 269.5700 -17.0382
333 0.0000 276.6245 -17.0157
334 0.0000 283.7073 -17.0276
335 0.0000 290.7902 -17.0150
336 0.0000 297.8719 -17.0200
337 0.0000 304.9551 -17.0095
338 0.0000 312.0379 -17.0261
339 0.0000 319.1192 -17.0119
340 0.0000 326.2016 -17.0357
341 0.0000 333.2848 -17.0411
342 0.0000 340.3684 -17.0419
343 0.0000 347.4501 -17.0255
344 0.0000 354.5299 -17.0361
345 0.0000 5.1885 -9.8495
346 0.0000 12.2368 -9.8499
347 0.0000 19.2875 -9.8493
348 0.0000 26.3372 -9.8495
349 0.0000 33.3870 -9.8306
350 0.0000 40.4370 -9.8553
351 0.0000 47.4875 -9.8537
352 0.0000 54.5351 -9.8596
353 0.0000 61.5851 -9.8590
354 0.0000 68.6345 -9.8614
355 0.0000 75.6933 -9.8475
356 0.0000 82.7426 -9.8422
357 0.0000 89.7930 -9.8491
358 0.0000 96.8423 -9.8424
359 0.0000 103.8889 -9.8493
360 0.0000 110.9492 -9.8335
361 0.0000 118.0192 -9.8283
362 0.0000 125.0869 -9.8292
363 0.0000 132.1573 -9.8318
364 0.0000 139.2242 -9.8315
365 0.0000 146.2939 -9.8307
366 0.0000 153.3629 -9.8320
367 0.0000 160.4316 -9.8328
368 0.0000 167.4989 -9.8292
369 0.0000 174.5671 -9.8284
370 0.0000 181.6355 -9.8301
371 0.0000 188.7037 -9.8276
372 0.0000 195.7730 -9.8316
373 0.0000 202.8413 -9.8273
374 0.0000 209.9091 -9.8242
375 0.0000 216.9803 -9.8222
376 0.0000 224.0490 -9.8201
377 0.0000 231.1170 -9.8207
378 0.0000 238.1857 -9.8247
379 0.0000 245.2552 -9.8188
380 0.0000 252.3251 -9.8236
381 0.0000 259.3935 -9.8198
382 0.0000 266.4629 -9.8146
383 0.0000 273.5337 -9.8164
384 0.0000 280.5935 -9.8302
385 0.0000 287.6427 -9.8386
386 0.0000 294.6918 -9.8261
387 0.0000 301.7410 -9.8333
388 0.0000 308.7915 -9.8268
389 0.0000 315.8401 -9.8251
390 0.0000 322.8891 -9.8402
391 0.0000 329.9401 -9.8475
392 0.0000 336.9877 -9.8530
393 0.0000 344.0385 -9.8344
394 0.0000 351.0880 -9.8519
395 0.0000 178.1378 -9.8544
396 0.0000 181.6930 -2.6570
397 0.0000 8.7215 -2.6524
398 0.0000 15.7519 -2.6465
399 0.0000 22.7823 -2.6602
400 0.0000 29.8122 -2.6549
401 0.0000 36.8430 -2.6602
402 0.0000 43.8692 -2.6615
403 0.0000 50.8978 -2.6633
404 0.0000 57.9274 -2.6649
405 0.0000 64.9565 -2.6666
406 0.0000 71.9857 -2.6681
407 0.0000 79.0208 -2.6563
408 0.0000 86.0543 -2.6510
409 0.0000 93.0808 -2.6555
410 0.0000 100.1056 -2.6720
411 0.0000 107.1686 -2.6624
412 0.0000 114.2589 -2.6366
413 0.0000 121.3505 -2.6383
414 0.0000 128.4389 -2.6395
415 0.0000 135.5286 -2.6400
416 0.0000 142.6163 -2.6412
417 0.0000 149.7071 -2.6426
418 0.0000 156.7937 -2.6388
419 0.0000 163.8825 -2.6358
420 0.0000 170.9724 -2.6333
421 0.0000 178.0602 -2.6374
422 0.0000 185.1492 -2.6284
423 0.0000 192.2394 -2.6402
424 0.0000 199.3271 -2.6323
425 0.0000 206.4170 -2.6310
426 0.0000 213.5065 -2.6303
427 0.0000 220.5943 -2.6201
428 0.0000 227.6841 -2.6246
429 0.0000 234.7729 -2.6259
430 0.0000 241.8617 -2.6225
431 0.0000 248.9522 -2.6272
432 0.0000 256.0431 -2.6278
433 0.0000 263.1322 -2.6280
434 0.0000 270.2220 -2.6238
435 0.0000 277.3129 -2.6363
436 0.0000 284.3728 -2.6277
437 0.0000 291.4007 -2.6123
438 0.0000 298.4306 -2.6297
439 0.0000 305.4595 -2.6282
440 0.0000 312.4886 -2.6375
441 0.0000 319.5157 -2.6350
442 0.0000 326.5469 -2.6363
443 0.0000 333.5758 -2.6487
444 0.0000 340.6045 -2.6502
445 0.0000 347.6343 -2.6469
446 0.0000 354.6635 -2.6436
457 0.0000 75.3341 4.5380
458 0.0000 82.3378 4.5215
459 0.0000 89.3591 4.5402
460 0.0000 96.3596 4.5198
461 0.0000 103.2847 4.5164
462 0.0000 110.1383 4.5505
463 0.0000 116.9790 4.5513
464 0.0000 123.8222 4.5520
465 0.0000 130.6644 4.5544
466 0.0000 137.5105 4.5521
467 0.0000 144.3484 4.5559
468 0.0000 151.1933 4.5552
469 0.0000 158.0338 4.5561
470 0.0000 164.8752 4.5595
471 0.0000 171.7171 4.5622
472 0.0000 178.5593 4.5657
473 0.0000 185.3013 4.7277
474 0.0000 192.2441 4.5689
475 0.0000 199.0868 4.5638
476 0.0000 205.9289 4.5706
477 0.0000 212.7689 4.5690
478 0.0000 219.6114 4.5650
479 0.0000 226.4542 4.5653
480 0.0000 233.2958 4.5625
481 0.0000 240.1381 4.5652
482 0.0000 246.9803 4.5709
498 0.0000 178.2161 4.5461
499 0.0000 181.7618 11.7471
511 0.0000 85.5741 11.7411
512 0.0000 92.5487 11.7124
513 0.0000 99.6081 11.7343
514 0.0000 106.7355 11.7451
515 0.0000 114.0109 11.7461
516 0.0000 121.2872 11.7469
517 0.0000 128.5621 11.7485
518 0.0000 135.8393 11.7477
519 0.0000 143.1145 11.7505
520 0.0000 150.3888 11.7504
521 0.0000 157.6648 11.7527
522 0.0000 164.9418 11.7517
523 0.0000 172.2170 11.7521
524 0.0000 179.4946 11.7539
525 0.0000 186.7693 11.5759
526 0.0000 193.8958 11.7555
527 0.0000 201.0207 11.7570
528 0.0000 208.1457 11.7558
529 0.0000 215.1208 11.7561
530 0.0000 222.0967 11.7558
531 0.0000 229.0726 11.7556
532 0.0000 236.0472 11.7571
543 0.0000 312.8779 11.7535
550 0.0000 181.3627 18.9313
563 0.0000 95.5611 18.9295
564 0.0000 102.7248 18.9388
565 0.0000 109.7795 18.9383
566 0.0000 116.8322 18.9378
567 0.0000 123.8881 18.9400
568 0.0000 130.9398 18.9402
569 0.0000 137.9937 18.9405
570 0.0000 145.0496 18.9431
571 0.0000 152.1032 18.9448
572 0.0000 159.1564 18.9445
573 0.0000 166.2112 18.9449
574 0.0000 173.2642 18.9461
575 0.0000 180.3185 18.9471
576 0.0000 187.3844 18.9490
577 0.0000 194.5458 18.9478
578 0.0000 201.7075 18.9434
579 0.0000 208.9649 18.9475
580 0.0000 216.2327 18.9469
581 0.0000 223.5009 18.9479
600 0.0000 180.9507 26.1245
613 0.0000 98.7142 26.1317
614 0.0000 106.1966 26.1307
615 0.0000 113.6786 26.1287
616 0.0000 121.1614 26.1298
617 0.0000 128.6437 26.1320
618 0.0000 136.1261 26.1282
619 0.0000 143.6094 26.1321
620 0.0000 151.0919 26.1333
621 0.0000 158.5731 26.1356
622 0.0000 166.0567 26.1338
623 0.0000 173.5404 26.1363
624 0.0000 181.0226 26.1401
625 0.0000 188.5053 26.1393
626 0.0000 195.9889 26.1398
627 0.0000 203.4698 26.1358
628 0.0000 210.9527 26.1356
629 0.0000 218.4328 26.1380
648 0.0000 180.5638 33.3248
662 0.0000 109.7782 33.3236
663 0.0000 117.6319 33.3187
664 0.0000 125.4862 33.3196
665 0.0000 133.3390 33.3185
666 0.0000 141.1955 33.3235
667 0.0000 149.0505 33.3280
668 0.0000 156.9031 33.3287
669 0.0000 164.7561 33.3302
670 0.0000 172.6123 33.3285
671 0.0000 180.4673 33.3314
672 0.0000 188.3210 33.3323
673 0.0000 196.1743 33.3278
674 0.0000 204.0306 33.3278
675 0.0000 211.8832 33.3281
694 0.0000 183.4617 40.5173
707 0.0000 114.6830 40.5098
708 0.0000 123.3052 40.5079
709 0.0000 131.9196 40.5081
710 0.0000 140.5407 40.5137
711 0.0000 149.1579 40.5126
712 0.0000 157.7783 40.5184
713 0.0000 166.3959 40.5192
714 0.0000 175.0150 40.5199
715 0.0000 183.6323 40.5218
716 0.0000 192.2513 40.5170
717 0.0000 200.8685 40.5173
718 0.0000 209.4866 40.5162
733 0.0000 338.1726 40.5262
735 0.0000 175.0291 40.5217
736 0.0000 182.2084 47.7006
748 0.0000 119.5418 47.6946
749 0.0000 128.9685 47.6972
750 0.0000 138.3956 47.6973
751 0.0000 147.8216 47.7034
752 0.0000 157.2501 47.7058
753 0.0000 166.6739 47.7060
754 0.0000 176.1005 47.7078
755 0.0000 185.5262 47.7081
756 0.0000 194.9559 47.7044
757 0.0000 204.7330 47.7022
771 0.0000 342.1391 47.7103
773 0.0000 186.9524 54.8805
784 0.0000 125.7427 54.8582
785 0.0000 136.6741 54.8782
786 0.0000 147.5966 54.8943
787 0.0000 158.5235 54.8913
788 0.0000 169.4509 54.8889
789 0.0000 180.3855 54.8905
790 0.0000 191.3979 54.8901
791 0.0000 202.4134 54.8894
804 0.0000 345.7782 54.9016
805 0.0000 176.3659 54.8936
806 0.0000 186.6718 62.0661
815 0.0000 126.6548 62.0425
816 0.0000 140.0020 62.0557
817 0.0000 153.3327 62.0657
818 0.0000 166.6718 62.0710
819 0.0000 180.0133 62.0669
820 0.0000 193.3545 62.0665
832 0.0000 173.3418 62.0680
833 0.0000 188.5848 69.2321
840 0.0000 128.5523 69.2111
841 0.0000 145.7235 69.2939
842 0.0000 162.8723 69.2312
843 0.0000 180.0275 69.2317
844 0.0000 197.1712 69.2290
853 0.0000 171.4560 69.2362
854 0.0000 192.0302 76.3647
859 0.0000 131.9435 76.3616
860 0.0000 156.0123 76.3663
861 0.0000 180.0419 76.3675
868 0.0000 168.0627 76.3703
872 0.0000 140.0807 83.3997
873 0.0000 180.2318 83.3990
877 0.0000 160.4618 83.3935
880 0.0000 190.6149 85.8592
881 0.0000 170.4761 85.8617
1348 0.0000 81.6493 -13.4338
1349 0.0000 88.6594 -13.4378
1391 0.0000 14.7108 -3.3878
1392 0.0000 22.6360 -6.2491
1393 0.0000 29.5474 -6.2487
1394 0.0000 36.4372 -6.2537
1395 0.0000 43.3510 -6.2584
1396 0.0000 50.2594 -6.2578
1397 0.0000 57.1685 -6.2575
1398 0.0000 64.0792 -6.2566
1399 0.0000 70.9788 -6.2516
1400 0.0000 77.8849 -6.2547
1401 0.0000 84.7935 -6.2465
1402 0.0000 91.8065 -6.2458
1403 0.0000 98.5864 -6.2462
1404 0.0000 105.5171 -6.2462
1405 0.0000 112.5468 -6.2471
1450 0.0000 67.3306 0.9358
1451 0.0000 74.2175 0.9407
1452 0.0000 81.0933 0.9514
1453 0.0000 88.0396 0.9401
1454 0.0000 94.8081 0.9425
1455 0.0000 101.7561 0.9425
1456 0.0000 108.7173 0.9449
1457 0.0000 115.6787 0.9461
1462 0.0000 150.4706 0.9593
1492 0.0000 178.4823 0.9339
1493 0.0000 181.9507 8.1332
1504 0.0000 77.4075 8.1476
1505 0.0000 84.3494 8.1486
1506 0.0000 91.0999 8.1461
1507 0.0000 97.9930 8.1430
1508 0.0000 104.9944 8.1342
1509 0.0000 111.8800 8.1409
1510 0.0000 118.9861 8.1363
1511 0.0000 125.9195 8.1377
1512 0.0000 132.9057 8.1363
1513 0.0000 139.8874 8.1491
1514 0.0000 147.3089 9.5400
1545 0.0000 181.5681 15.3306
1557 0.0000 86.9472 15.3416
1558 0.0000 94.0626 15.3404
1559 0.0000 101.0713 15.3417
1560 0.0000 108.0829 15.3394
1561 0.0000 115.0963 15.3433
1562 0.0000 122.1210 15.3265
1563 0.0000 129.1347 15.3450
1564 0.0000 136.1889 15.3441
1565 0.0000 143.2486 15.3446
1566 0.0000 150.3017 15.3381
1567 0.0000 157.0818 15.3462
1568 0.0000 164.1355 15.3473
1569 0.0000 171.1882 15.3463
1571 0.0000 185.2328 15.3517
1572 0.0000 192.2473 15.3497
1573 0.0000 199.2597 15.3517
1574 0.0000 206.3827 18.2025
1575 0.0000 213.3498 15.3440
1576 0.0000 220.3270 15.3457
1577 0.0000 227.3278 18.6263
1596 0.0000 181.1589 22.5112
1609 0.0000 97.1299 22.5315
1610 0.0000 104.4446 22.5329
1611 0.0000 111.5915 22.5332
1612 0.0000 118.9997 22.5179
1613 0.0000 126.3944 22.5253
1614 0.0000 133.7091 22.5334
1615 0.0000 141.0265 22.5358
1616 0.0000 148.3489 22.5294
1617 0.0000 155.6638 22.5384
1618 0.0000 162.9785 22.5377
1619 0.0000 170.2985 22.5373
1620 0.0000 177.6227 22.5462
1621 0.0000 184.9296 22.5396
1622 0.0000 192.2499 22.5392
1623 0.0000 199.5647 22.5370
1624 0.0000 206.8516 22.5252
1625 0.0000 214.1180 22.5293
1626 0.0000 221.3883 22.5231
1640 0.0000 324.2384 22.5196
1645 0.0000 180.7786 29.7041
1658 0.0000 100.3273 29.7239
1659 0.0000 107.9879 29.7235
1660 0.0000 115.6417 29.7107
1661 0.0000 123.1223 29.7232
1662 0.0000 130.9663 29.7262
1663 0.0000 138.6266 29.7264
1664 0.0000 146.2937 29.7199
1665 0.0000 153.9480 29.7293
1666 0.0000 161.6077 29.7287
1667 0.0000 169.2716 29.7295
1668 0.0000 176.9345 29.7248
1669 0.0000 184.5896 29.7307
1670 0.0000 192.2514 29.7310
1671 0.0000 199.9099 29.7296
1672 0.0000 207.5810 30.7018
1673 0.0000 215.2329 29.7264
1692 0.0000 183.8832 36.8959
1705 0.0000 112.7616 36.8979
1706 0.0000 121.1252 36.9166
1707 0.0000 129.3852 36.9169
1708 0.0000 137.8619 36.9190
1709 0.0000 146.2319 36.9108
1710 0.0000 154.4752 36.9202
1711 0.0000 162.9654 36.9200
1712 0.0000 171.3318 36.9205
1713 0.0000 179.7061 36.9177
1714 0.0000 188.0677 36.9211
1715 0.0000 196.4372 36.9221
1716 0.0000 204.8030 36.9204
1717 0.0000 213.1738 36.9028
1734 0.0000 175.5030 36.8950
1747 0.0000 118.2625 44.1025
1748 0.0000 127.5113 44.1022
1749 0.0000 136.7640 44.1050
1750 0.0000 146.0137 44.1037
1751 0.0000 155.0855 44.1065
1752 0.0000 164.5060 44.1094
1753 0.0000 173.7558 44.1122
1754 0.0000 183.0596 44.1012
1755 0.0000 192.0766 44.1100
1756 0.0000 201.5021 44.1087
1757 0.0000 210.7569 44.1061
1771 0.0000 340.0752 44.0840
1773 0.0000 178.2885 44.0847
1774 0.0000 182.4445 51.2695
1785 0.0000 114.0036 51.2801
1786 0.0000 124.4354 51.2881
1787 0.0000 134.8700 51.2844
1788 0.0000 145.3032 51.2873
1789 0.0000 155.7428 51.2900
1790 0.0000 166.1579 51.2887
1791 0.0000 176.6081 51.2901
1792 0.0000 187.0504 51.2859
1793 0.0000 197.4844 51.2849
1809 0.0000 187.2320 58.4498
1819 0.0000 126.9825 58.4668
1820 0.0000 138.9898 58.4649
1821 0.0000 150.7502 58.4631
1822 0.0000 163.2023 58.4672
1823 0.0000 175.0024 58.4719
1824 0.0000 186.9933 58.4831
1838 0.0000 175.0176 58.4504
1839 0.0000 188.9497 65.6210
1847 0.0000 128.9049 65.6268
1848 0.0000 143.8735 65.6325
1849 0.0000 158.8916 65.6340
1850 0.0000 173.7128 65.6318
1862 0.0000 173.9224 65.6212
1863 0.0000 192.5314 72.7800
1869 0.0000 132.5094 72.7905
1870 0.0000 152.4588 72.8592
1871 0.0000 164.6728 73.3393
1880 0.0000 172.5214 72.7766
